Signature=ISS_Analysis_Ver_1_0
Title=horizontal polarizer and slit 05
Comment=
Visualization=Y:Intensity,X:EmissionWavelength,Z:None,PlotType:2D,Y2:None
ExcitationWavelength=type:numeric, unit:nm, fixed:240.0
Temperature=type:numeric, unit:C, fixed:20.0
EmissionWavelength=type:numeric,unit:nm
Space=EmissionWavelength
Columns=EmissionWavelength,Intensity
[Data]
	 250.00	        0.445534
	 252.00	        0.416528
	 254.00	        0.387822
	 256.00	        0.351828
	 258.00	        0.320544
	 260.00	        0.301377
	 262.00	        0.287679
	 264.00	        0.272822
	 266.00	        0.269614
	 268.00	        0.267308
	 270.00	        0.265929
	 272.00	         0.26547
	 274.00	        0.264194
	 276.00	        0.269244
	 278.00	        0.278668
	 280.00	        0.298347
	 282.00	        0.327364
	 284.00	        0.361821
	 286.00	        0.394228
	 288.00	        0.419182
	 290.00	        0.438481
	 292.00	        0.456892
	 294.00	        0.475285
	 296.00	        0.491087
	 298.00	        0.505076
	 300.00	        0.515305
	 302.00	        0.526759
	 304.00	        0.534017
	 306.00	        0.542623
	 308.00	        0.546269
	 310.00	        0.545405
	 312.00	        0.541624
	 314.00	        0.535418
	 316.00	        0.523204
	 318.00	        0.507125
	 320.00	        0.491449
	 322.00	        0.475579
	 324.00	        0.458695
	 326.00	        0.441657
	 328.00	        0.424791
	 330.00	        0.407432
	 332.00	        0.390885
	 334.00	        0.376435
	 336.00	        0.361546
	 338.00	        0.348748
	 340.00	        0.337382
	 342.00	        0.328138
	 344.00	        0.323353
	 346.00	        0.321347
	 348.00	        0.321875
	 350.00	        0.324097
	 352.00	        0.328937
	 354.00	        0.334706
	 356.00	        0.340136
	 358.00	        0.346837
	 360.00	         0.35412
	 362.00	        0.362122
	 364.00	        0.370782
	 366.00	        0.380909
	 368.00	        0.392034
	 370.00	        0.404826
	 372.00	        0.419533
	 374.00	        0.436262
	 376.00	        0.456704
	 378.00	        0.479639
	 380.00	        0.506098
	 382.00	        0.535504
	 384.00	        0.566958
	 386.00	         0.59891
	 388.00	        0.628891
	 390.00	        0.658025
	 392.00	        0.686766
	 394.00	        0.714745
	 396.00	        0.742005
	 398.00	         0.76746
	 400.00	        0.789515
	 402.00	        0.809979
	 404.00	        0.827952
	 406.00	        0.844024
	 408.00	        0.858664
	 410.00	        0.872296
	 412.00	        0.885818
	 414.00	        0.898553
	 416.00	        0.909835
	 418.00	        0.918105
	 420.00	        0.924813
	 422.00	        0.932227
	 424.00	         0.93985
	 426.00	        0.947688
	 428.00	        0.956572
	 430.00	        0.964134
	 432.00	        0.969556
	 434.00	        0.973805
	 436.00	        0.976563
	 438.00	        0.979144
	 440.00	        0.981643
	 442.00	        0.984155
	 444.00	        0.987557
	 446.00	        0.991375
	 448.00	        0.994629
	 450.00	        0.998303
	 452.00	          1.0013
	 454.00	         1.00271
	 456.00	         1.00341
	 458.00	         1.00351
	 460.00	          1.0022
	 462.00	          1.0007
	 464.00	        0.998801
	 466.00	        0.996612
	 468.00	        0.995025
	 470.00	        0.994728
	 472.00	        0.994431
	 474.00	        0.994431
	 476.00	        0.993937
	 478.00	        0.993641
	 480.00	        0.992063
	 482.00	        0.989707
	 484.00	        0.987362
	 486.00	        0.985804
	 488.00	        0.984155
	 490.00	        0.980681
	 492.00	         0.96768
	 494.00	        0.933794
	 496.00	        0.877039
	 498.00	        0.807689
	 500.00	        0.734592
	 502.00	        0.663658
	 504.00	        0.600889
	 506.00	        0.550176
	 508.00	        0.515145
	 510.00	        0.496081
	 512.00	        0.491159
	 514.00	        0.498853
	 516.00	        0.516182
	 518.00	        0.540394
	 520.00	        0.568602
	 522.00	        0.597979
	 524.00	        0.626645
	 526.00	        0.652529
	 528.00	        0.675493
	 530.00	         0.69541
	 532.00	        0.711997
	 534.00	        0.726058
	 536.00	        0.738171
	 538.00	        0.747943
	 540.00	        0.756258
	 542.00	        0.763709
	 544.00	        0.770772
	 546.00	        0.776578
	 548.00	        0.781677
	 550.00	        0.785546
	 552.00	        0.788519
	 554.00	        0.790014
	 556.00	        0.790202
	 558.00	        0.788706
	 560.00	        0.785978
	 562.00	        0.782411
	 564.00	        0.778634
	 566.00	        0.774954
	 568.00	        0.771248
	 570.00	        0.767754
	 572.00	        0.764526
	 574.00	        0.761673
	 576.00	        0.758438
	 578.00	        0.755687
	 580.00	        0.752899
	 582.00	        0.750413
	 584.00	        0.748167
	 586.00	        0.746269
	 588.00	        0.744158
	 590.00	        0.741235
	 592.00	        0.737735
	 594.00	        0.733568
	 596.00	        0.728757
	 598.00	        0.723589
	 600.00	        0.718236
	 602.00	          0.7122
	 604.00	        0.705816
	 606.00	        0.699643
	 608.00	        0.693577
	 610.00	        0.687427
	 612.00	        0.681477
	 614.00	         0.67627
	 616.00	        0.671186
	 618.00	        0.665646
	 620.00	        0.660415
	 622.00	        0.654836
	 624.00	        0.649266
	 626.00	        0.643335
	 628.00	        0.637064
	 630.00	        0.630318
	 632.00	        0.623092
	 634.00	        0.615726
	 636.00	        0.607866
	 638.00	        0.599772
	 640.00	        0.591296
	 642.00	        0.582615
	 644.00	        0.573822
	 646.00	        0.565387
	 648.00	        0.557227
	 650.00	        0.549179
	 652.00	        0.541536
	 654.00	        0.534474
	 656.00	        0.527621
	 658.00	        0.520996
	 660.00	        0.514562
	 662.00	         0.50844
	 664.00	        0.502159
	 666.00	        0.495761
	 668.00	         0.48962
	 670.00	        0.483372
	 672.00	        0.477122
	 674.00	        0.470832
	 676.00	        0.464296
	 678.00	        0.457792
	 680.00	        0.451101
	 682.00	        0.444405
	 684.00	        0.437771
	 686.00	        0.431165
	 688.00	        0.424538
	 690.00	        0.418043
	 692.00	        0.411607
	 694.00	        0.405121
	 696.00	        0.398947
	 698.00	        0.392943
	 700.00	        0.386967
	 702.00	        0.380967
	 704.00	        0.375038
	 706.00	        0.369549
	 708.00	        0.364047
	 710.00	        0.358835
	 712.00	        0.353457
	 714.00	        0.348141
	 716.00	        0.342736
	 718.00	        0.337633
	 720.00	        0.332403
	 722.00	        0.327536
	 724.00	        0.322643
	 726.00	        0.317712
	 728.00	        0.312911
	 730.00	        0.308223
	 732.00	         0.30338
	 734.00	        0.298686
	 736.00	        0.294066
	 738.00	        0.289503
	 740.00	        0.285022
	 742.00	        0.280678
	 744.00	        0.276281
	 746.00	        0.271939
	 748.00	        0.267695
	 750.00	        0.263539
	 752.00	        0.259491
	 754.00	        0.255506
	 756.00	        0.251598
	 758.00	        0.247641
	 760.00	        0.243819
	 762.00	        0.240298
	 764.00	        0.236832
	 766.00	        0.233601
	 768.00	        0.230473
	 770.00	        0.227511
	 772.00	        0.224371
	 774.00	         0.22141
	 776.00	        0.218508
	 778.00	        0.215522
	 780.00	        0.212811
	 782.00	        0.210256
	 784.00	        0.208026
	 786.00	        0.206258
	 788.00	        0.205044
	 790.00	        0.204796
	 792.00	        0.205897
	 794.00	        0.208869
	 796.00	        0.211945
	 798.00	        0.213124
	 800.00	        0.211936
	 802.00	        0.208799
	 804.00	        0.204186
	 806.00	        0.198543
	 808.00	        0.192263
	 810.00	        0.185401
	 812.00	        0.178368
	 814.00	        0.171075
	 816.00	        0.163666
	 818.00	        0.156106
	 820.00	        0.148291
	 822.00	        0.140166
	 824.00	        0.131815
	 826.00	        0.123259
	 828.00	        0.114296
	 830.00	         0.10534
	 832.00	        0.096419
	 834.00	        0.087568
	 836.00	       0.0790108
	 838.00	       0.0708095
	 840.00	       0.0631991
	 842.00	       0.0562224
	 844.00	        0.049898
	 846.00	       0.0442167
	 848.00	       0.0392392
	 850.00	       0.0349272
	 852.00	       0.0312328
	 854.00	       0.0280302
	 856.00	        0.025315
	 858.00	       0.0229314
	 860.00	       0.0208894
	 862.00	       0.0192081
	 864.00	       0.0177694
	 866.00	       0.0165098
	 868.00	       0.0154243
	 870.00	       0.0145184
	 872.00	        0.013752
	 874.00	       0.0130629
	 876.00	        0.012432
	 878.00	       0.0118571
	 880.00	       0.0113785
	 882.00	       0.0109586
	 884.00	       0.0106104
	 886.00	       0.0102942
	 888.00	       0.0100011
	 890.00	      0.00972437
	 892.00	      0.00950518
	 894.00	      0.00931999
	 896.00	      0.00915696
	 898.00	      0.00903116
	 900.00	        0.008548
