Signature=ISS_Analysis_Ver_1_0
Title=without polarizer and slit 2
Comment=
Visualization=Y:Intensity,X:EmissionWavelength,Z:None,PlotType:2D,Y2:None
ExcitationWavelength=type:numeric, unit:nm, fixed:240.0
Temperature=type:numeric, unit:C, fixed:20.0
EmissionWavelength=type:numeric,unit:nm
Space=EmissionWavelength
Columns=EmissionWavelength,Intensity
[Data]
	 250.00	        0.681524
	 252.00	        0.653253
	 254.00	        0.615006
	 256.00	        0.573789
	 258.00	        0.530504
	 260.00	          0.4965
	 262.00	        0.469197
	 264.00	        0.446449
	 266.00	        0.431686
	 268.00	         0.41927
	 270.00	        0.412116
	 272.00	        0.406752
	 274.00	         0.40715
	 276.00	        0.411286
	 278.00	        0.419674
	 280.00	        0.429166
	 282.00	        0.440645
	 284.00	        0.452264
	 286.00	        0.465701
	 288.00	        0.479708
	 290.00	         0.49478
	 292.00	        0.508595
	 294.00	        0.523013
	 296.00	        0.536509
	 298.00	        0.547495
	 300.00	        0.558223
	 302.00	        0.569184
	 304.00	        0.579341
	 306.00	        0.588339
	 308.00	         0.59609
	 310.00	        0.603719
	 312.00	        0.609273
	 314.00	        0.612783
	 316.00	        0.614968
	 318.00	        0.615574
	 320.00	        0.615801
	 322.00	        0.615044
	 324.00	        0.613422
	 326.00	        0.611396
	 328.00	        0.608273
	 330.00	        0.604997
	 332.00	        0.602228
	 334.00	        0.599556
	 336.00	        0.595948
	 338.00	        0.593542
	 340.00	        0.592101
	 342.00	        0.591611
	 344.00	        0.592557
	 346.00	        0.594212
	 348.00	        0.597122
	 350.00	        0.601287
	 352.00	        0.606722
	 354.00	        0.612407
	 356.00	        0.618965
	 358.00	        0.626527
	 360.00	        0.635163
	 362.00	         0.64487
	 364.00	         0.65634
	 366.00	        0.668405
	 368.00	        0.681013
	 370.00	        0.694203
	 372.00	        0.708366
	 374.00	          0.7227
	 376.00	         0.73888
	 378.00	        0.755116
	 380.00	        0.771664
	 382.00	        0.788581
	 384.00	        0.804505
	 386.00	        0.820546
	 388.00	        0.835561
	 390.00	        0.851064
	 392.00	        0.865651
	 394.00	        0.879353
	 396.00	        0.891981
	 398.00	         0.90465
	 400.00	        0.916422
	 402.00	         0.92687
	 404.00	        0.936067
	 406.00	         0.94402
	 408.00	        0.950299
	 410.00	        0.956023
	 412.00	        0.961076
	 414.00	        0.965904
	 416.00	        0.970309
	 418.00	         0.97371
	 420.00	         0.97704
	 422.00	        0.980777
	 424.00	        0.984155
	 426.00	        0.986972
	 428.00	        0.989511
	 430.00	         0.99108
	 432.00	        0.992753
	 434.00	        0.994233
	 436.00	        0.994926
	 438.00	        0.995421
	 440.00	        0.995718
	 442.00	        0.996115
	 444.00	         0.99681
	 446.00	        0.997506
	 448.00	        0.998203
	 450.00	        0.999101
	 452.00	          0.9997
	 454.00	          0.9999
	 456.00	          0.9997
	 458.00	        0.998502
	 460.00	        0.996612
	 462.00	        0.993739
	 464.00	        0.990393
	 466.00	        0.986582
	 468.00	        0.982994
	 470.00	        0.979912
	 472.00	        0.977708
	 474.00	        0.975991
	 476.00	        0.974089
	 478.00	         0.97229
	 480.00	        0.970026
	 482.00	        0.967118
	 484.00	        0.963391
	 486.00	        0.959141
	 488.00	        0.954198
	 490.00	        0.947329
	 492.00	         0.93791
	 494.00	        0.925497
	 496.00	        0.909753
	 498.00	        0.890076
	 500.00	        0.866101
	 502.00	        0.838504
	 504.00	        0.809323
	 506.00	        0.780396
	 508.00	        0.753807
	 510.00	        0.730994
	 512.00	        0.713063
	 514.00	        0.700624
	 516.00	        0.693866
	 518.00	        0.692425
	 520.00	         0.69483
	 522.00	        0.700329
	 524.00	        0.707614
	 526.00	        0.715973
	 528.00	        0.724533
	 530.00	        0.732601
	 532.00	        0.739919
	 534.00	        0.746102
	 536.00	        0.750976
	 538.00	        0.754603
	 540.00	        0.757002
	 542.00	         0.75838
	 544.00	        0.758898
	 546.00	         0.75861
	 548.00	        0.757691
	 550.00	        0.756315
	 552.00	        0.754489
	 554.00	        0.752106
	 556.00	          0.7494
	 558.00	        0.745935
	 560.00	        0.742335
	 562.00	        0.738334
	 564.00	         0.73416
	 566.00	         0.72998
	 568.00	        0.725689
	 570.00	        0.721189
	 572.00	        0.716538
	 574.00	        0.711845
	 576.00	        0.707214
	 578.00	        0.702691
	 580.00	        0.698275
	 582.00	        0.693914
	 584.00	        0.689655
	 586.00	        0.685542
	 588.00	        0.681524
	 590.00	        0.677461
	 592.00	        0.673355
	 594.00	        0.669031
	 596.00	        0.664673
	 598.00	        0.660153
	 600.00	        0.655351
	 602.00	        0.650364
	 604.00	        0.645328
	 606.00	        0.639959
	 608.00	        0.634558
	 610.00	        0.629247
	 612.00	        0.623636
	 614.00	        0.617894
	 616.00	        0.612107
	 618.00	        0.605804
	 620.00	        0.599305
	 622.00	        0.592839
	 624.00	        0.586441
	 626.00	        0.579845
	 628.00	        0.573394
	 630.00	        0.566893
	 632.00	        0.560004
	 634.00	        0.553036
	 636.00	        0.545881
	 638.00	         0.53859
	 640.00	        0.531265
	 642.00	        0.523889
	 644.00	        0.516502
	 646.00	        0.509217
	 648.00	        0.502159
	 650.00	        0.495025
	 652.00	        0.488019
	 654.00	        0.481139
	 656.00	        0.474338
	 658.00	        0.467617
	 660.00	        0.460999
	 662.00	        0.454442
	 664.00	        0.447968
	 666.00	        0.441482
	 668.00	        0.435047
	 670.00	        0.428633
	 672.00	        0.422244
	 674.00	        0.416095
	 676.00	        0.409853
	 678.00	        0.403535
	 680.00	        0.397283
	 682.00	        0.391221
	 684.00	        0.385327
	 686.00	        0.379463
	 688.00	        0.373497
	 690.00	        0.367566
	 692.00	        0.361795
	 694.00	        0.356075
	 696.00	        0.350435
	 698.00	        0.344792
	 700.00	        0.339109
	 702.00	        0.333456
	 704.00	        0.327933
	 706.00	        0.322497
	 708.00	        0.317219
	 710.00	        0.312012
	 712.00	        0.306852
	 714.00	        0.301814
	 716.00	        0.296956
	 718.00	        0.292099
	 720.00	        0.287158
	 722.00	        0.282247
	 724.00	        0.277431
	 726.00	        0.272606
	 728.00	        0.267924
	 730.00	        0.263456
	 732.00	        0.259229
	 734.00	        0.255043
	 736.00	        0.251004
	 738.00	        0.247029
	 740.00	        0.243043
	 742.00	         0.23912
	 744.00	        0.235244
	 746.00	        0.231187
	 748.00	        0.226974
	 750.00	        0.222757
	 752.00	        0.218828
	 754.00	        0.215031
	 756.00	        0.211345
	 758.00	        0.207771
	 760.00	        0.204298
	 762.00	        0.200928
	 764.00	         0.19773
	 766.00	        0.194606
	 768.00	        0.191523
	 770.00	        0.188541
	 772.00	        0.185615
	 774.00	        0.182762
	 776.00	        0.180002
	 778.00	        0.177377
	 780.00	        0.174911
	 782.00	        0.172536
	 784.00	        0.170372
	 786.00	        0.168566
	 788.00	         0.16699
	 790.00	        0.165785
	 792.00	        0.164883
	 794.00	        0.164074
	 796.00	        0.163204
	 798.00	        0.162272
	 800.00	        0.161005
	 802.00	        0.159266
	 804.00	        0.156919
	 806.00	        0.153875
	 808.00	         0.15015
	 810.00	        0.145885
	 812.00	        0.141173
	 814.00	        0.136164
	 816.00	        0.131015
	 818.00	        0.125625
	 820.00	        0.119996
	 822.00	        0.114189
	 824.00	        0.108129
	 826.00	        0.101881
	 828.00	       0.0954399
	 830.00	       0.0887997
	 832.00	       0.0820944
	 834.00	       0.0753858
	 836.00	       0.0687999
	 838.00	       0.0624083
	 840.00	       0.0563003
	 842.00	       0.0505546
	 844.00	       0.0451266
	 846.00	       0.0401771
	 848.00	       0.0357361
	 850.00	       0.0317523
	 852.00	       0.0282702
	 854.00	       0.0252549
	 856.00	       0.0226066
	 858.00	       0.0203355
	 860.00	       0.0184165
	 862.00	       0.0167655
	 864.00	       0.0153815
	 866.00	       0.0142156
	 868.00	       0.0131897
	 870.00	       0.0123232
	 872.00	       0.0115758
	 874.00	       0.0109444
	 876.00	       0.0103862
	 878.00	      0.00992433
	 880.00	      0.00952551
	 882.00	      0.00915803
	 884.00	        0.008834
	 886.00	      0.00854306
	 888.00	      0.00830757
	 890.00	      0.00809396
	 892.00	      0.00791104
	 894.00	      0.00776734
	 896.00	      0.00763804
	 898.00	      0.00755379
	 900.00	      0.00728015
