Signature=ISS_Analysis_Ver_1_0
Title=without polarizer and slit 05
Comment=
Visualization=Y:Intensity,X:EmissionWavelength,Z:None,PlotType:2D,Y2:None
ExcitationWavelength=type:numeric, unit:nm, fixed:240.0
Temperature=type:numeric, unit:C, fixed:20.0
EmissionWavelength=type:numeric,unit:nm
Space=EmissionWavelength
Columns=EmissionWavelength,Intensity
[Data]
	 250.00	        0.850123
	 252.00	        0.814996
	 254.00	        0.775976
	 256.00	        0.732708
	 258.00	        0.692665
	 260.00	        0.653937
	 262.00	        0.624103
	 264.00	        0.604631
	 266.00	        0.584454
	 268.00	        0.569866
	 270.00	        0.559065
	 272.00	        0.554785
	 274.00	        0.552517
	 276.00	         0.55273
	 278.00	        0.558129
	 280.00	        0.571135
	 282.00	        0.589275
	 284.00	        0.608939
	 286.00	        0.626645
	 288.00	        0.639918
	 290.00	        0.650449
	 292.00	        0.658328
	 294.00	        0.666045
	 296.00	        0.672857
	 298.00	        0.681013
	 300.00	        0.687994
	 302.00	        0.696767
	 304.00	        0.703037
	 306.00	        0.708567
	 308.00	        0.712352
	 310.00	        0.713572
	 312.00	        0.714235
	 314.00	        0.712403
	 316.00	        0.708717
	 318.00	         0.70373
	 320.00	         0.69935
	 322.00	        0.693145
	 324.00	        0.687663
	 326.00	        0.681803
	 328.00	        0.675174
	 330.00	        0.669882
	 332.00	        0.664584
	 334.00	        0.660415
	 336.00	        0.655781
	 338.00	        0.650195
	 340.00	        0.646329
	 342.00	        0.645203
	 344.00	        0.644787
	 346.00	         0.64612
	 348.00	        0.649688
	 350.00	        0.655351
	 352.00	        0.662559
	 354.00	        0.670601
	 356.00	        0.678104
	 358.00	        0.684885
	 360.00	        0.691706
	 362.00	        0.700084
	 364.00	        0.709119
	 366.00	        0.719424
	 368.00	        0.729182
	 370.00	        0.738934
	 372.00	        0.749569
	 374.00	        0.761499
	 376.00	        0.775074
	 378.00	        0.790014
	 380.00	        0.805932
	 382.00	        0.821963
	 384.00	        0.838364
	 386.00	        0.854701
	 388.00	        0.871156
	 390.00	        0.886603
	 392.00	        0.901388
	 394.00	        0.916003
	 396.00	        0.929887
	 398.00	        0.941974
	 400.00	        0.953471
	 402.00	        0.963855
	 404.00	         0.97229
	 406.00	         0.97924
	 408.00	        0.984834
	 410.00	        0.989413
	 412.00	        0.993345
	 414.00	        0.996711
	 416.00	          0.9995
	 418.00	          1.0017
	 420.00	         1.00412
	 422.00	         1.00644
	 424.00	         1.00857
	 426.00	          1.0098
	 428.00	         1.01041
	 430.00	         1.01051
	 432.00	          1.0102
	 434.00	          1.0101
	 436.00	         1.00918
	 438.00	         1.00746
	 440.00	         1.00583
	 442.00	         1.00432
	 444.00	         1.00291
	 446.00	          1.0016
	 448.00	          1.0005
	 450.00	          0.9996
	 452.00	        0.998602
	 454.00	        0.997208
	 456.00	        0.995322
	 458.00	        0.992851
	 460.00	        0.989903
	 462.00	        0.985902
	 464.00	        0.981065
	 466.00	        0.975705
	 468.00	         0.97078
	 470.00	        0.966744
	 472.00	         0.96302
	 474.00	        0.959417
	 476.00	        0.956297
	 478.00	        0.953107
	 480.00	        0.949668
	 482.00	        0.945895
	 484.00	        0.941974
	 486.00	        0.938438
	 488.00	        0.934842
	 490.00	        0.930752
	 492.00	        0.923532
	 494.00	        0.907029
	 496.00	        0.878735
	 498.00	         0.84317
	 500.00	         0.80457
	 502.00	        0.765755
	 504.00	         0.72982
	 506.00	        0.699594
	 508.00	        0.676636
	 510.00	        0.661682
	 512.00	        0.654065
	 514.00	        0.652869
	 516.00	        0.656814
	 518.00	        0.664143
	 520.00	        0.673491
	 522.00	        0.683247
	 524.00	        0.692761
	 526.00	        0.701164
	 528.00	        0.708366
	 530.00	        0.714694
	 532.00	        0.719683
	 534.00	         0.72317
	 536.00	        0.725426
	 538.00	        0.726375
	 540.00	        0.726322
	 542.00	        0.725426
	 544.00	        0.723956
	 546.00	        0.722074
	 548.00	        0.719632
	 550.00	        0.716794
	 552.00	        0.713674
	 554.00	        0.710429
	 556.00	        0.706564
	 558.00	        0.702247
	 560.00	        0.697788
	 562.00	        0.692953
	 564.00	        0.688279
	 566.00	         0.68348
	 568.00	        0.678794
	 570.00	        0.673991
	 572.00	        0.668986
	 574.00	        0.663922
	 576.00	        0.658892
	 578.00	        0.654151
	 580.00	        0.649562
	 582.00	        0.645245
	 584.00	        0.641725
	 586.00	        0.639345
	 588.00	        0.638692
	 590.00	        0.636254
	 592.00	        0.632751
	 594.00	        0.628615
	 596.00	        0.624259
	 598.00	        0.619732
	 600.00	        0.614817
	 602.00	        0.609719
	 604.00	        0.604157
	 606.00	        0.598623
	 608.00	        0.593014
	 610.00	        0.587441
	 612.00	        0.581734
	 614.00	        0.575937
	 616.00	        0.569801
	 618.00	         0.56338
	 620.00	        0.556979
	 622.00	         0.55054
	 624.00	        0.543863
	 626.00	        0.537115
	 628.00	        0.530363
	 630.00	         0.52356
	 632.00	        0.516716
	 634.00	        0.509892
	 636.00	        0.502866
	 638.00	        0.495712
	 640.00	        0.488639
	 642.00	        0.481371
	 644.00	        0.474158
	 646.00	         0.46705
	 648.00	        0.460257
	 650.00	        0.453494
	 652.00	        0.446828
	 654.00	        0.440257
	 656.00	        0.433708
	 658.00	        0.427369
	 660.00	        0.421195
	 662.00	        0.415007
	 664.00	        0.408831
	 666.00	         0.40282
	 668.00	        0.396794
	 670.00	        0.390946
	 672.00	           0.385
	 674.00	        0.379118
	 676.00	         0.37326
	 678.00	        0.367471
	 680.00	        0.361768
	 682.00	        0.356062
	 684.00	        0.350631
	 686.00	        0.345256
	 688.00	        0.339778
	 690.00	        0.334526
	 692.00	        0.329272
	 694.00	        0.324034
	 696.00	        0.318918
	 698.00	        0.313834
	 700.00	        0.308775
	 702.00	        0.303582
	 704.00	        0.298499
	 706.00	        0.293574
	 708.00	        0.288667
	 710.00	        0.283889
	 712.00	        0.279244
	 714.00	        0.274635
	 716.00	        0.270037
	 718.00	        0.265463
	 720.00	        0.261022
	 722.00	        0.256687
	 724.00	        0.252379
	 726.00	        0.248102
	 728.00	        0.243932
	 730.00	        0.239917
	 732.00	        0.235888
	 734.00	        0.231992
	 736.00	        0.228045
	 738.00	        0.224155
	 740.00	         0.22041
	 742.00	        0.216736
	 744.00	        0.213065
	 746.00	        0.209468
	 748.00	        0.205871
	 750.00	        0.202306
	 752.00	        0.198839
	 754.00	        0.195572
	 756.00	        0.192348
	 758.00	        0.189065
	 760.00	        0.185919
	 762.00	        0.182896
	 764.00	        0.180073
	 766.00	        0.177182
	 768.00	         0.17441
	 770.00	        0.171689
	 772.00	        0.169022
	 774.00	        0.166351
	 776.00	        0.163808
	 778.00	        0.161335
	 780.00	        0.158952
	 782.00	        0.156696
	 784.00	         0.15455
	 786.00	        0.152704
	 788.00	        0.151181
	 790.00	        0.150103
	 792.00	        0.149891
	 794.00	        0.150648
	 796.00	        0.151584
	 798.00	        0.151579
	 800.00	        0.150335
	 802.00	         0.14799
	 804.00	         0.14473
	 806.00	        0.140865
	 808.00	         0.13655
	 810.00	        0.131989
	 812.00	         0.12718
	 814.00	        0.122167
	 816.00	        0.116991
	 818.00	        0.111659
	 820.00	        0.106095
	 822.00	        0.100321
	 824.00	       0.0942409
	 826.00	       0.0879631
	 828.00	       0.0815435
	 830.00	       0.0749901
	 832.00	       0.0684097
	 834.00	       0.0619855
	 836.00	       0.0557958
	 838.00	       0.0499773
	 840.00	        0.044544
	 842.00	       0.0395649
	 844.00	       0.0350949
	 846.00	       0.0310902
	 848.00	       0.0276222
	 850.00	       0.0246018
	 852.00	       0.0219886
	 854.00	       0.0197416
	 856.00	        0.017835
	 858.00	       0.0161995
	 860.00	        0.014805
	 862.00	       0.0136232
	 864.00	       0.0126277
	 866.00	       0.0117927
	 868.00	       0.0110731
	 870.00	       0.0104504
	 872.00	      0.00991971
	 874.00	      0.00946064
	 876.00	      0.00905285
	 878.00	      0.00868695
	 880.00	      0.00836662
	 882.00	      0.00809048
	 884.00	      0.00784791
	 886.00	      0.00762807
	 888.00	      0.00743849
	 890.00	      0.00726473
	 892.00	      0.00710227
	 894.00	      0.00695402
	 896.00	      0.00684256
	 898.00	      0.00678596
	 900.00	      0.00653909
