Title=75 nM NS dsDNA Cy5 - 150 mM NaCl - 20deg - anisotropy 2
Comment=2,2,1,1
Signature=ISS_Experiment_Ver_1_0
Timestamp=Mon Dec 03 10:43:08 2018

AcquisitionType=Photon Counting
AcquisitionFormat=L
AcquisitionSide=Right

Measurable=Polarization

RightEmissionWavelengthBandwidth=8
ExcitationWavelengthBandwidth=8
Visualization=PlotType:2D,X:Iteration,Y:Polarization


Iteration=type:index,unit:none,count:20
ExcitationWavelength=type:numeric,unit:nm,fixed:649.0
EmissionWavelength=type:numeric,unit:nm,fixed:665.0

Space=Iteration
Columns=Iteration,Polarization,Anisotropy,TotalIntensity,I_VV,I_VH,I_HV,I_HH,PolarizationStdError,AnisotropyStdError,TotalIntensityStdError,I_VVStdError,I_VHStdError,I_HVStdError,I_HHStdError,Temperature
[Data]
1  	     0.346611697      0.261259686        35585.163          18059.7          20315.5          27384.9          63489.1    0.0074779    0.0056156       242.61       168.13       139.08       157.71       280.83            20.01
2  	     0.341668863      0.257055157       36060.7807            18200          20704.2          27384.9          63489.1    0.0070013    0.0052949       250.57       148.83       178.88       157.71       280.83            20.01
3  	     0.338924196      0.254727201       35648.1123          17936.4          20531.4          27384.9          63489.1    0.0070838    0.0053783       261.89       142.19        206.8       157.71       280.83            20.01
4  	     0.357739212      0.270782667       36235.3114          18619.7            20420          27384.9          63489.1    0.0058473    0.0044363       203.55       128.81       106.72       157.71       280.83          20.0066
5  	     0.339282347      0.255030703       35879.9316          18060.3          20656.5          27384.9          63489.1    0.0052989    0.0040147       193.45        109.3       108.33       157.71       280.83          20.0066
6  	      0.35291853      0.266647275       36370.1156          18588.7          20612.2          27384.9          63489.1    0.0084163    0.0063423       281.76       192.24       186.06       157.71       280.83          20.0066
7  	     0.345023043      0.259906619        36114.569          18295.8          20655.5          27384.9          63489.1    0.0061906    0.0047556       247.85       115.41        205.3       157.71       280.83          20.0066
8  	     0.346217975      0.260924199       36059.7679          18292.5          20595.8          27384.9          63489.1    0.0067871    0.0051341       239.22       146.39       160.43       157.71       280.83          20.0066
9  	      0.34759578      0.262098648       35962.6671          18271.4          20507.7          27384.9          63489.1    0.0063952    0.0049074       250.61       121.82       205.62       157.71       280.83          20.0066
10 	     0.354538413        0.2680352       36045.0276          18455.9          20389.3          27384.9          63489.1    0.0071512    0.0054031       241.64       159.74       149.16       157.71       280.83          20.0066
11 	     0.348673212      0.263017908       35873.7321          18248.2          20431.5          27384.9          63489.1    0.0075995    0.0057043       245.46       173.76       135.58       157.71       280.83          20.0066
12 	     0.349513381      0.263735254        36161.942          18412.1          20575.6          27384.9          63489.1    0.0063834    0.0048044       212.72        144.8       101.51       157.71       280.83          20.0066
13 	     0.345689448      0.260474003       36150.1509          18327.5            20660          27384.9          63489.1    0.0080804    0.0060923       277.67       178.88        195.2       157.71       280.83          20.0066
14 	       0.3559371      0.269234972       36130.7676          18528.7          20404.3          27384.9          63489.1    0.0058941    0.0045098       220.34       120.52       154.16       157.71       280.83            20.01
15 	     0.340960106      0.256453547       36263.7602          18287.9          20837.6          27384.9          63489.1    0.0058927    0.0044721        219.1       121.89       147.13       157.71       280.83            20.01
16 	     0.339568851      0.255273549       35891.6316            18072          20656.5          27384.9          63489.1    0.0048752    0.0037599       203.45       82.998       154.48       157.71       280.83            20.01
17 	     0.344574176       0.25952461       36433.9083          18448.3          20848.9          27384.9          63489.1    0.0069876    0.0052979       255.38       148.59       187.21       157.71       280.83            20.01
18 	     0.347406012      0.261936817       36264.2274          18420.7          20684.2          27384.9          63489.1    0.0060691     0.004567       204.07       137.41       89.589       157.71       280.83            20.01
19 	      0.34927499      0.263531667        36068.838          18359.8          20528.3          27384.9          63489.1    0.0069784    0.0052537       232.75       157.49       131.32       157.71       280.83            20.01
20 	     0.351008761      0.265013154       36026.0472          18373.6          20462.7          27384.9          63489.1    0.0048458    0.0037859        211.3       75.762       173.79       157.71       280.83            20.01
