Title=75 nM SST ssDNA Cy5 - 150 mM NaCl - 20deg - anisotropy
Comment=2,2,1,1
Signature=ISS_Experiment_Ver_1_0
Timestamp=Fri Nov 30 15:16:58 2018

AcquisitionType=Photon Counting
AcquisitionFormat=L
AcquisitionSide=Right

Measurable=Polarization

RightEmissionWavelengthBandwidth=8
ExcitationWavelengthBandwidth=8
Visualization=PlotType:2D,X:Iteration,Y:Polarization


Iteration=type:index,unit:none,count:20
ExcitationWavelength=type:numeric,unit:nm,fixed:649.0
EmissionWavelength=type:numeric,unit:nm,fixed:660.0

Space=Iteration
Columns=Iteration,Polarization,Anisotropy,TotalIntensity,I_VV,I_VH,I_HV,I_HH,PolarizationStdError,AnisotropyStdError,TotalIntensityStdError,I_VVStdError,I_VHStdError,I_HVStdError,I_HHStdError,Temperature
[Data]
1  	     0.307627973      0.228518176       27327.3209          13272.3          15988.7          21848.5          49708.8    0.0049962    0.0037128       131.04       82.495       70.674       80.864       218.06            19.98
2  	     0.321655067      0.240189427        27802.275          13719.3          16020.5          21848.5          49708.8    0.0064086    0.0047989       174.64       105.94       128.41       80.864       218.06            19.98
3  	     0.313686333      0.233544085       27540.0626          13467.9          16008.2          21848.5          49708.8    0.0070129    0.0052345       189.45       114.61       144.93       80.864       218.06            19.98
4  	     0.310297531      0.230730004        27688.202          13488.4          16153.4          21848.5          49708.8    0.0061159    0.0045942       179.69       92.304       148.87       80.864       218.06            19.98
5  	     0.309821942       0.23033564       27611.1406          13443.6          16116.7          21848.5          49708.8    0.0066393    0.0049394       176.51        110.5       126.34       80.864       218.06          19.9933
6  	     0.308966486      0.229626635       27967.9346          13604.1            16340          21848.5          49708.8    0.0078724    0.0058191        196.9       140.24        126.2       80.864       218.06          19.9933
7  	     0.320106847      0.238895231       28144.1118          13863.7          16245.1          21848.5          49708.8    0.0084626     0.006243       196.93       159.01       93.674       80.864       218.06          19.9933
8  	     0.313669354      0.233529968       28172.4686          13776.9          16376.1          21848.5          49708.8    0.0056158    0.0041796       150.38       96.457       91.605       80.864       218.06          19.9933
9  	     0.314705586      0.234391867       28245.0023          13828.6          16399.8          21848.5          49708.8    0.0084342    0.0063083       237.67       139.15       197.94       80.864       218.06          19.9933
10 	     0.312495449      0.232554359       28603.1333          13968.9          16647.6          21848.5          49708.8    0.0070681    0.0052235       177.33       130.44       97.702       80.864       218.06          19.9966
11 	     0.312985363      0.232961412       28872.7341          14108.4          16795.6          21848.5          49708.8    0.0061881    0.0045975          167       110.36       105.04       80.864       218.06          19.9966
12 	     0.315248196      0.234843456       28980.4581          14197.4          16816.9          21848.5          49708.8     0.007813    0.0058105       211.89       139.78        153.3       80.864       218.06          19.9966
13 	     0.315108295      0.234727005       28907.4715          14159.4          16777.1          21848.5          49708.8    0.0056011    0.0041904        161.7       94.492       114.05       80.864       218.06          19.9966
14 	     0.319236082      0.238167994       29376.2398          14456.4          16972.5          21848.5          49708.8     0.009425    0.0069251       216.71       189.67       68.781       80.864       218.06          19.9966
15 	     0.313724656      0.233575949       29469.1368          14411.9          17128.8          21848.5          49708.8    0.0077854    0.0058244       230.42       133.12       190.03       80.864       218.06          19.9966
16 	     0.300497754      0.222631972       29385.7051          14156.7          17324.2          21848.5          49708.8    0.0079687    0.0058808       213.47       147.03       145.29       80.864       218.06          19.9966
17 	     0.305933246      0.227116307       29591.6895          14344.4            17345          21848.5          49708.8    0.0070865     0.005239       190.57       132.07       120.47       80.864       218.06          19.9933
18 	     0.312021156      0.232160425       29723.4038          14508.2          17308.5          21848.5          49708.8    0.0060621    0.0045945       205.21        88.33       185.83       80.864       218.06          19.9966
19 	     0.311915619      0.232072789       29643.7736          14467.6          17264.1          21848.5          49708.8    0.0057655    0.0043608       191.47        86.19       167.36       80.864       218.06          19.9966
20 	     0.322333494      0.240757012       29712.7798          14673.3          17108.6          21848.5          49708.8    0.0068624     0.005103       184.76       128.98       114.04       80.864       218.06            19.99
