Title=75 nM SST ssDNA Cy5 - 150 mM NaCl - 20deg return - anisotropy
Comment=2,2,1,1
Signature=ISS_Experiment_Ver_1_0
Timestamp=Fri Nov 30 15:26:37 2018

AcquisitionType=Photon Counting
AcquisitionFormat=L
AcquisitionSide=Right

Measurable=Polarization

RightEmissionWavelengthBandwidth=8
ExcitationWavelengthBandwidth=8
Visualization=PlotType:2D,X:Iteration,Y:Polarization


Iteration=type:index,unit:none,count:20
ExcitationWavelength=type:numeric,unit:nm,fixed:649.0
EmissionWavelength=type:numeric,unit:nm,fixed:660.0

Space=Iteration
Columns=Iteration,Polarization,Anisotropy,TotalIntensity,I_VV,I_VH,I_HV,I_HH,PolarizationStdError,AnisotropyStdError,TotalIntensityStdError,I_VVStdError,I_VHStdError,I_HVStdError,I_HHStdError,Temperature
[Data]
1  	     0.328149068      0.245634263       21943.1306          10907.7          12731.2          17411.8          40174.8     0.009713    0.0072865       207.01       127.88        152.5       110.73       233.16          20.5533
2  	      0.31674846      0.236093006       22520.5917          11051.5          13231.5          17411.8          40174.8    0.0095773    0.0071188        199.3       134.45       125.82       110.73       233.16            20.51
3  	     0.317382859      0.236621808       22526.8242          11062.5            13226          17411.8          40174.8     0.009529    0.0071241       210.77       127.34       156.77       110.73       233.16            20.46
4  	     0.324288009      0.242393808       22644.0466          11207.2          13194.3          17411.8          40174.8    0.0070127    0.0052498       153.48       95.631       79.208       110.73       233.16          20.3966
5  	     0.334518585      0.251000501       22705.3111          11367.8          13079.7          17411.8          40174.8    0.0088244    0.0065722       175.55       129.73       77.029       110.73       233.16          20.3266
6  	     0.323593141      0.241811621       22410.0695          11082.7            13068          17411.8          40174.8     0.010895    0.0081321       229.48       150.41       165.29       110.73       233.16          20.2533
7  	     0.331316918      0.248299935       22658.1605          11303.4          13099.6          17411.8          40174.8    0.0080027    0.0060008       173.09       110.45       104.49       110.73       233.16            20.21
8  	     0.315490351      0.235045049       22346.7936          10950.6          13147.4          17411.8          40174.8    0.0089322    0.0066184       178.58       127.23       89.932       110.73       233.16            20.15
9  	     0.321918308      0.240409625       22759.8338          11234.4          13296.5          17411.8          40174.8    0.0083325     0.006201        173.7       119.06       90.476       110.73       233.16          20.1233
10 	     0.336178035       0.25240278       22781.8137          11427.4          13099.2          17411.8          40174.8    0.0064101    0.0048963       160.55       76.213       117.72       110.73       233.16            20.09
11 	      0.33329893      0.249970972       22838.4839          11418.8          13174.5          17411.8          40174.8     0.007037     0.005423       190.34       73.201       167.99       110.73       233.16          20.0733
12 	     0.333319765      0.249988552        23125.753          11562.7          13339.9          17411.8          40174.8    0.0098728    0.0073693       206.06       145.03       123.81       110.73       233.16            20.05
13 	     0.326206276      0.244002575       23232.7825          11523.5          13508.6          17411.8          40174.8    0.0081777    0.0061481       189.96       110.95       134.61       110.73       233.16            20.04
14 	      0.32148112      0.240043945       22993.0264          11343.9          13439.2          17411.8          40174.8     0.010302    0.0076679       217.71       148.34       142.86       110.73       233.16          20.0333
15 	      0.31613465      0.235581603       23131.2881          11343.3          13599.4          17411.8          40174.8    0.0089421    0.0066498       192.68       128.16       117.67       110.73       233.16            20.02
16 	     0.327370275      0.244979895       23330.3612          11587.1          13547.8          17411.8          40174.8    0.0070369    0.0053567       181.91       84.532       144.67       110.73       233.16          20.0133
17 	     0.328036706       0.24553983       23099.1683          11480.9          13403.6          17411.8          40174.8    0.0078403    0.0058477       165.68       113.89       77.158       110.73       233.16            20.01
18 	     0.328722561      0.246116376       23367.6013          11623.3            13549          17411.8          40174.8    0.0067847    0.0051073        158.8       92.461       92.604       110.73       233.16          20.0066
19 	     0.331308606      0.248292933       23438.5482          11692.6          13550.9          17411.8          40174.8     0.010064    0.0074964       209.73       151.28       120.32       110.73       233.16          20.0033
20 	     0.336111376      0.252346418       23455.0196          11764.2          13487.3          17411.8          40174.8    0.0085909    0.0064289       184.77       126.64       103.01       110.73       233.16               20
