Title=75 nM NS dsDNA Cy5 - 150 mM NaCl - 20deg - anisotropy
Comment=1,1,1,1
Signature=ISS_Experiment_Ver_1_0
Timestamp=Mon Dec 03 10:41:13 2018

AcquisitionType=Photon Counting
AcquisitionFormat=L
AcquisitionSide=Right

Measurable=Polarization

RightEmissionWavelengthBandwidth=8
ExcitationWavelengthBandwidth=8
Visualization=PlotType:2D,X:Iteration,Y:Polarization


Iteration=type:index,unit:none,count:20
ExcitationWavelength=type:numeric,unit:nm,fixed:649.0
EmissionWavelength=type:numeric,unit:nm,fixed:665.0

Space=Iteration
Columns=Iteration,Polarization,Anisotropy,TotalIntensity,I_VV,I_VH,I_HV,I_HH,PolarizationStdError,AnisotropyStdError,TotalIntensityStdError,I_VVStdError,I_VHStdError,I_HVStdError,I_HHStdError,Temperature
[Data]
1  	     0.325941385      0.243780284       11352.1428             5629           6671.8           8493.1          19801.8     0.010943    0.0082332       125.25       71.937       57.523       121.71       127.24          20.0066
2  	     0.363655111      0.275878253       11352.2965             5872           6388.7           8493.1          19801.8     0.013137     0.010137       159.63       81.106          125       121.71       127.24          20.0066
3  	     0.355795311       0.26911329       11296.5152           5792.2           6416.7           8493.1          19801.8     0.012544      0.00952       137.46       85.423       74.889       121.71       127.24          20.0066
4  	     0.362165392      0.274592949        11551.422           5965.1           6512.3           8493.1          19801.8     0.012946    0.0098618       146.19       89.615       87.575       121.71       127.24          20.0066
5  	     0.357487099       0.27056602        11185.479           5746.1             6341           8493.1          19801.8     0.010242    0.0078237       116.46        66.08        50.79       121.71       127.24          20.0066
6  	     0.358220333      0.271196222       11391.6533           5856.8           6452.3           8493.1          19801.8     0.008368    0.0065777       116.53       40.345         77.3       121.71       127.24          20.0066
7  	      0.35248677      0.266277627       11253.5584           5748.9           6417.1           8493.1          19801.8     0.012929    0.0098766       150.58       82.278       107.05       121.71       127.24          20.0066
8  	     0.345978718       0.26072038       11382.6975           5772.7           6539.9           8493.1          19801.8     0.012922    0.0097873       145.48       87.038       88.979       121.71       127.24          20.0066
9  	     0.353717078      0.267331263       11361.0645           5811.8           6469.1           8493.1          19801.8     0.018284     0.013674       176.57       137.17       80.483       121.71       127.24          20.0066
10 	     0.349257992      0.263517152       11412.1208           5808.9             6532           8493.1          19801.8     0.011721    0.0089923       144.61       71.653        104.5       121.71       127.24          20.0066
11 	     0.357443392      0.270528465       11487.7651           5901.1           6512.7           8493.1          19801.8     0.015459     0.011669       163.27       111.69       93.868       121.71       127.24            20.01
12 	     0.352617417      0.266389466       11189.6762           5717.1           6379.7           8493.1          19801.8     0.012564    0.0094948       132.98       86.502       61.848       121.71       127.24            20.01
13 	     0.339427028      0.255153331       11187.9266           5632.4           6476.4           8493.1          19801.8     0.012305    0.0092716       133.29       82.962       66.663       121.71       127.24            20.01
14 	     0.351180644      0.265160131       11341.1555           5785.2           6476.9           8493.1          19801.8     0.015382     0.011604       163.28       108.19        99.89       121.71       127.24            20.01
15 	     0.368242597      0.279845397       11559.0219           6009.5           6469.4           8493.1          19801.8     0.013868     0.010573       154.43       97.339        95.97       121.71       127.24            20.01
16 	     0.341689978      0.257073084       11515.5989           5812.1           6648.9           8493.1          19801.8     0.012232    0.0092473       139.31       83.307       77.725       121.71       127.24            20.01
17 	     0.366294258      0.278158833       11482.1032           5956.6           6441.4           8493.1          19801.8     0.012648    0.0096638       143.29       86.335       86.836       121.71       127.24            20.01
18 	     0.343760411      0.258832383       11417.9365           5776.2           6576.9           8493.1          19801.8     0.015726     0.011811       165.65       112.47       97.127       121.71       127.24            20.01
19 	     0.361750837      0.274235536       11539.7054           5956.3           6508.9           8493.1          19801.8     0.012321    0.0095143       153.88       76.188       117.66       121.71       127.24            20.01
20 	     0.363495109      0.275740136       11278.7125           5832.9           6348.5           8493.1          19801.8     0.017576     0.013342       187.44       122.15        132.4       121.71       127.24            20.01
